# Wavelength (nm), Intensity
175.94	1298.41
176.16	1298.41
176.38	1298.41
176.61	1259.50
176.83	1245.16
177.05	1283.70
177.27	1287.99
177.49	1288.92
177.71	1285.57
177.93	1287.43
178.15	1292.45
178.37	1292.08
178.59	1291.15
178.81	1295.62
179.03	1295.62
179.25	1293.01
179.47	1294.13
179.69	1292.08
179.91	1285.94
180.13	1283.33
180.35	1289.48
180.58	1289.85
180.80	1293.57
181.02	1292.83
181.24	1287.24
181.46	1284.45
181.68	1285.38
181.90	1284.08
182.12	1283.70
182.34	1293.57
182.56	1293.39
182.78	1287.43
183.00	1285.38
183.22	1298.04
183.44	1298.04
183.66	1295.06
183.88	1291.34
184.10	1285.75
184.32	1286.87
184.54	1284.26
184.76	1282.21
184.98	1283.89
185.20	1285.57
185.42	1285.94
185.64	1273.28
185.86	1266.95
186.08	1273.28
186.30	1280.91
186.52	1283.52
186.74	1288.92
186.96	1293.01
187.18	1289.48
187.40	1293.76
187.62	1292.27
187.84	1293.76
188.06	1293.39
188.28	1298.78
188.50	1301.02
188.72	1301.39
188.94	1302.88
189.16	1304.74
189.38	1298.60
189.60	1299.53
189.82	1294.87
190.04	1295.99
190.26	1291.90
190.48	1299.34
190.70	1303.63
190.92	1294.32
191.14	1292.27
191.36	1293.57
191.58	1286.50
191.80	1289.66
192.02	1289.66
192.24	1299.34
192.46	1299.72
192.68	1298.23
192.90	1291.71
193.12	1279.79
193.34	1282.40
193.56	1282.77
193.78	1278.49
194.00	1280.17
194.22	1281.84
194.44	1278.30
194.66	1276.82
194.88	1273.84
195.10	1274.95
195.32	1285.38
195.54	1293.94
195.76	1290.22
195.98	1287.24
196.20	1284.63
196.42	1288.73
196.64	1287.99
196.86	1289.66
197.08	1284.63
197.30	1286.50
197.51	1290.41
197.73	1287.06
197.95	1289.48
198.17	1293.57
198.39	1293.01
198.61	1293.57
198.83	1285.75
199.05	1288.17
199.27	1286.12
199.49	1287.80
199.71	1285.94
199.93	1288.73
200.15	1286.12
200.37	1285.75
200.59	1282.40
200.81	1288.73
201.03	1295.81
201.25	1305.30
201.46	1299.90
201.68	1302.69
201.90	1303.63
202.12	1309.02
202.34	1301.58
202.56	1292.08
202.78	1286.31
203.00	1292.64
203.22	1290.41
203.44	1297.48
203.66	1289.10
203.88	1289.10
204.10	1290.78
204.31	1290.03
204.53	1289.10
204.75	1296.74
204.97	1300.46
205.19	1305.30
205.41	1304.37
205.63	1304.93
205.85	1292.27
206.07	1293.94
206.29	1295.62
206.51	1295.06
206.73	1296.36
206.94	1293.01
207.16	1290.59
207.38	1296.74
207.60	1291.90
207.82	1289.48
208.04	1295.06
208.26	1291.71
208.48	1294.13
208.70	1290.59
208.91	1289.85
209.13	1288.92
209.35	1291.71
209.57	1291.71
209.79	1291.15
210.01	1295.25
210.23	1294.32
210.45	1295.25
210.67	1299.34
210.88	1292.45
211.10	1299.34
211.32	1301.58
211.54	1297.85
211.76	1293.01
211.98	1291.52
212.20	1288.73
212.42	1291.71
212.63	1292.83
212.85	1286.50
213.07	1285.94
213.29	1288.73
213.51	1284.82
213.73	1284.45
213.95	1289.66
214.17	1292.45
214.38	1294.87
214.60	1295.81
214.82	1290.78
215.04	1287.06
215.26	1286.31
215.48	1290.59
215.70	1296.18
215.91	1295.99
216.13	1291.34
216.35	1287.99
216.57	1291.34
216.79	1285.94
217.01	1284.08
217.23	1282.40
217.44	1286.50
217.66	1290.03
217.88	1284.45
218.10	1277.93
218.32	1278.49
218.54	1278.86
218.75	1282.40
218.97	1276.26
219.19	1275.51
219.41	1274.21
219.63	1273.65
219.85	1275.51
220.06	1271.04
220.28	1272.35
220.50	1275.14
220.72	1274.95
220.94	1274.95
221.16	1276.26
221.37	1277.93
221.59	1282.59
221.81	1285.57
222.03	1286.12
222.25	1287.61
222.46	1292.45
222.68	1299.53
222.90	1300.65
223.12	1301.02
223.34	1305.67
223.56	1300.27
223.77	1301.95
223.99	1304.18
224.21	1298.41
224.43	1304.18
224.65	1300.83
224.86	1293.94
225.08	1285.38
225.30	1287.06
225.52	1286.31
225.74	1284.45
225.95	1280.91
226.17	1280.17
226.39	1280.54
226.61	1283.89
226.83	1281.66
227.04	1280.17
227.26	1284.63
227.48	1286.68
227.70	1284.26
227.92	1286.50
228.13	1286.87
228.35	1291.34
228.57	1289.10
228.79	1287.61
229.00	1290.78
229.22	1293.94
229.44	1293.76
229.66	1297.85
229.88	1301.20
230.09	1298.78
230.31	1294.50
230.53	1294.87
230.75	1300.27
230.96	1306.23
231.18	1306.05
231.40	1306.23
231.62	1303.44
231.84	1303.81
232.05	1296.18
232.27	1292.64
232.49	1290.41
232.71	1288.92
232.92	1288.73
233.14	1285.19
233.36	1274.58
233.58	1272.91
233.79	1269.00
234.01	1265.83
234.23	1263.78
234.45	1261.92
234.66	1266.39
234.88	1277.19
235.10	1273.46
235.32	1273.46
235.53	1271.60
235.75	1278.68
235.97	1279.61
236.19	1280.91
236.40	1287.24
236.62	1291.15
236.84	1296.92
237.06	1296.55
237.27	1290.22
237.49	1300.09
237.71	1300.65
237.92	1304.56
238.14	1304.56
238.36	1304.18
238.58	1308.28
238.79	1304.56
239.01	1310.70
239.23	1312.56
239.45	1306.23
239.66	1311.63
239.88	1306.05
240.10	1307.16
240.31	1302.69
240.53	1302.51
240.75	1297.48
240.97	1296.55
241.18	1295.62
241.40	1287.99
241.62	1285.94
241.83	1290.41
242.05	1286.68
242.27	1284.45
242.49	1277.93
242.70	1279.79
242.92	1277.19
243.14	1278.30
243.35	1277.56
243.57	1280.17
243.79	1282.59
244.00	1287.61
244.22	1288.73
244.44	1291.34
244.66	1296.55
244.87	1302.14
245.09	1297.48
245.31	1298.60
245.52	1303.63
245.74	1300.65
245.96	1298.41
246.17	1302.51
246.39	1298.04
246.61	1295.25
246.82	1294.87
247.04	1294.50
247.26	1287.99
247.47	1293.20
247.69	1295.43
247.91	1294.50
248.13	1292.27
248.34	1293.39
248.56	1282.03
248.78	1285.57
248.99	1288.54
249.21	1282.59
249.43	1281.28
249.64	1281.47
249.86	1279.24
250.08	1282.03
250.29	1288.36
250.51	1290.97
250.73	1291.52
250.94	1298.41
251.16	1294.69
251.37	1291.71
251.59	1295.81
251.81	1297.85
252.02	1301.95
252.24	1299.72
252.46	1294.50
252.67	1285.19
252.89	1289.48
253.11	1291.90
253.32	1291.52
253.54	1290.78
253.76	1289.66
253.97	1288.73
254.19	1288.17
254.41	1290.22
254.62	1288.73
254.84	1291.71
255.05	1296.55
255.27	1294.50
255.49	1286.50
255.70	1286.31
255.92	1283.52
256.14	1282.03
256.35	1285.75
256.57	1286.12
256.79	1280.91
257.00	1288.73
257.22	1288.73
257.43	1281.47
257.65	1286.12
257.87	1288.73
258.08	1285.94
258.30	1280.35
258.51	1279.98
258.73	1273.46
258.95	1274.77
259.16	1277.00
259.38	1275.51
259.60	1274.21
259.81	1278.68
260.03	1274.02
260.24	1276.26
260.46	1277.00
260.68	1285.75
260.89	1294.32
261.11	1297.30
261.32	1295.06
261.54	1298.41
261.76	1301.76
261.97	1300.83
262.19	1302.32
262.40	1299.34
262.62	1295.99
262.84	1303.25
263.05	1301.20
263.27	1291.52
263.48	1286.50
263.70	1283.15
263.91	1283.15
264.13	1277.00
264.35	1278.68
264.56	1281.47
264.78	1281.10
264.99	1282.59
265.21	1277.56
265.43	1278.49
265.64	1276.26
265.86	1283.52
266.07	1287.80
266.29	1283.52
266.50	1279.79
266.72	1276.07
266.94	1272.35
267.15	1275.88
267.37	1275.51
267.58	1278.68
267.80	1275.88
268.01	1285.01
268.23	1283.15
268.44	1285.94
268.66	1286.68
268.88	1297.67
269.09	1304.56
269.31	1303.25
269.52	1300.46
269.74	1306.42
269.95	1300.46
270.17	1306.60
270.38	1304.37
270.60	1307.72
270.82	1304.56
271.03	1304.00
271.25	1299.16
271.46	1290.03
271.68	1291.15
271.89	1292.27
272.11	1289.10
272.32	1287.43
272.54	1284.82
272.75	1285.19
272.97	1280.35
273.18	1279.24
273.40	1289.10
273.62	1291.15
273.83	1291.15
274.05	1295.43
274.26	1302.51
274.48	1308.84
274.69	1308.47
274.91	1311.07
275.12	1304.74
275.34	1303.07
275.55	1303.25
275.77	1295.06
275.98	1287.24
276.20	1290.22
276.41	1282.96
276.63	1271.42
276.84	1259.69
277.06	1258.57
277.27	1252.98
277.49	1258.76
277.70	1258.57
277.92	1266.02
278.13	1272.72
278.35	1274.40
278.56	1278.49
278.78	1282.96
278.99	1288.54
279.21	1296.36
279.42	1303.44
279.64	1301.39
279.85	1298.04
280.07	1298.97
280.28	1293.57
280.50	1286.50
280.71	1287.06
280.93	1281.47
281.14	1277.19
281.36	1278.30
281.57	1275.70
281.79	1275.88
282.00	1284.82
282.22	1288.54
282.43	1288.92
282.65	1283.89
282.86	1282.77
283.08	1283.70
283.29	1288.54
283.51	1297.30
283.72	1292.08
283.94	1296.92
284.15	1295.43
284.36	1294.13
284.58	1301.02
284.79	1304.37
285.01	1309.21
285.22	1307.53
285.44	1307.91
285.65	1309.40
285.87	1304.18
286.08	1306.05
286.30	1298.23
286.51	1294.87
286.73	1292.27
286.94	1282.21
287.15	1277.19
287.37	1276.63
287.58	1278.86
287.80	1285.75
288.01	1285.75
288.23	1281.66
288.44	1286.31
288.66	1282.03
288.87	1283.70
289.08	1285.94
289.30	1287.24
289.51	1290.41
289.73	1293.76
289.94	1298.78
290.16	1287.80
290.37	1291.34
290.58	1292.08
290.80	1285.94
291.01	1296.55
291.23	1297.85
291.44	1292.08
291.66	1291.15
291.87	1286.50
292.08	1282.96
292.30	1282.40
292.51	1284.26
292.73	1282.96
292.94	1282.96
293.16	1289.85
293.37	1289.10
293.58	1291.90
293.80	1295.43
294.01	1301.39
294.23	1310.14
294.44	1315.73
294.65	1318.33
294.87	1322.80
295.08	1317.22
295.30	1320.75
295.51	1315.35
295.72	1314.42
295.94	1309.40
296.15	1311.63
296.37	1308.47
296.58	1302.51
296.79	1295.62
297.01	1294.50
297.22	1295.99
297.44	1292.64
297.65	1289.66
297.86	1298.04
298.08	1294.32
298.29	1298.04
298.51	1299.90
298.72	1295.25
298.93	1303.07
299.15	1306.98
299.36	1302.69
299.57	1295.43
299.79	1301.95
300.00	1307.16
300.22	1297.30
300.43	1292.45
300.64	1289.48
300.86	1277.75
301.07	1285.57
301.28	1280.73
301.50	1280.17
301.71	1280.73
301.93	1284.26
302.14	1283.15
302.35	1277.37
302.57	1283.52
302.78	1290.41
302.99	1287.24
303.21	1293.94
303.42	1292.27
303.63	1290.59
303.85	1284.26
304.06	1283.89
304.28	1288.92
304.49	1291.52
304.70	1293.57
304.92	1291.15
305.13	1293.20
305.34	1298.41
305.56	1298.78
305.77	1303.07
305.98	1301.76
306.20	1309.21
306.41	1311.44
306.62	1309.96
306.84	1311.07
307.05	1313.31
307.26	1316.84
307.48	1309.58
307.69	1315.73
307.90	1312.56
308.12	1306.23
308.33	1302.69
308.54	1304.93
308.76	1301.95
308.97	1300.83
309.18	1299.34
309.40	1298.04
309.61	1300.65
309.82	1302.14
310.04	1301.02
310.25	1303.44
310.46	1307.35
310.67	1312.75
310.89	1313.87
311.10	1322.24
311.31	1323.36
311.53	1323.55
311.74	1324.66
311.95	1320.94
312.17	1322.06
312.38	1310.89
312.59	1317.40
312.81	1319.82
313.02	1326.53
313.23	1325.59
313.44	1317.96
313.66	1313.68
313.87	1314.61
314.08	1314.80
314.30	1313.49
314.51	1313.68
314.72	1317.22
314.93	1314.80
315.15	1311.26
315.36	1303.44
315.57	1297.85
315.79	1301.58
316.00	1303.81
316.21	1303.63
316.42	1302.69
316.64	1301.58
316.85	1306.98
317.06	1310.33
317.28	1304.93
317.49	1305.30
317.70	1304.18
317.91	1310.70
318.13	1309.58
318.34	1313.49
318.55	1318.52
318.76	1320.20
318.98	1322.06
319.19	1322.24
319.40	1325.22
319.62	1336.02
319.83	1338.25
320.04	1341.05
320.25	1341.42
320.47	1345.33
320.68	1339.37
320.89	1332.30
321.10	1334.16
321.32	1332.30
321.53	1330.06
321.74	1328.20
321.95	1322.62
322.17	1326.71
322.38	1331.74
322.59	1328.57
322.80	1319.45
323.02	1321.50
323.23	1322.99
323.44	1322.43
323.65	1329.13
323.86	1328.20
324.08	1325.59
324.29	1324.29
324.50	1315.54
324.71	1308.65
324.93	1310.14
325.14	1312.00
325.35	1312.00
325.56	1310.51
325.78	1307.72
325.99	1304.00
326.20	1310.70
326.41	1315.54
326.62	1314.05
326.84	1320.01
327.05	1330.06
327.26	1324.85
327.47	1326.15
327.69	1330.43
327.90	1330.81
328.11	1334.90
328.32	1335.83
328.53	1331.18
328.75	1326.53
328.96	1329.13
329.17	1322.99
329.38	1316.47
329.59	1318.71
329.81	1316.47
330.02	1313.87
330.23	1314.05
330.44	1309.02
330.65	1308.47
330.87	1303.63
331.08	1310.51
331.29	1310.70
331.50	1310.51
331.71	1311.44
331.92	1310.33
332.14	1316.66
332.35	1317.59
332.56	1319.64
332.77	1320.94
332.98	1321.13
333.20	1325.59
333.41	1322.06
333.62	1322.62
333.83	1324.66
334.04	1325.97
334.25	1328.20
334.47	1326.15
334.68	1327.08
334.89	1326.53
335.10	1331.37
335.31	1335.65
335.52	1333.79
335.74	1330.99
335.95	1334.72
336.16	1339.00
336.37	1340.86
336.58	1342.72
336.79	1338.25
337.01	1337.14
337.22	1329.50
337.43	1334.53
337.64	1324.66
337.85	1326.53
338.06	1333.04
338.28	1328.20
338.49	1326.53
338.70	1325.97
338.91	1326.71
339.12	1336.39
339.33	1332.86
339.54	1341.05
339.76	1331.37
339.97	1336.21
340.18	1335.09
340.39	1333.04
340.60	1328.95
340.81	1327.08
341.02	1323.92
341.23	1321.68
341.45	1317.03
341.66	1321.31
341.87	1316.84
342.08	1314.98
342.29	1314.98
342.50	1313.12
342.71	1311.82
342.92	1322.06
343.14	1324.10
343.35	1329.88
343.56	1328.20
343.77	1328.57
343.98	1325.59
344.19	1329.88
344.40	1334.34
344.61	1337.70
344.82	1341.79
345.04	1341.79
345.25	1335.65
345.46	1331.55
345.67	1324.48
345.88	1322.43
346.09	1320.57
346.30	1323.73
346.51	1321.13
346.72	1324.29
346.94	1323.55
347.15	1318.33
347.36	1316.47
347.57	1314.98
347.78	1317.03
347.99	1319.64
348.20	1328.39
348.41	1321.68
348.62	1319.26
348.83	1323.55
349.04	1321.31
349.25	1321.87
349.47	1321.87
349.68	1320.94
349.89	1319.26
350.10	1318.71
350.31	1317.77
350.52	1315.91
350.73	1320.38
350.94	1322.06
351.15	1317.96
351.36	1318.15
351.57	1313.87
351.78	1310.51
351.99	1312.56
352.21	1318.89
352.42	1318.33
352.63	1320.38
352.84	1317.03
353.05	1317.22
353.26	1322.62
353.47	1320.75
353.68	1316.84
353.89	1314.42
354.10	1323.73
354.31	1315.54
354.52	1311.26
354.73	1309.02
354.94	1306.98
355.15	1299.16
355.36	1299.72
355.57	1292.45
355.78	1293.94
355.99	1293.94
356.20	1299.34
356.42	1303.25
356.63	1315.73
356.84	1306.79
357.05	1306.23
357.26	1305.86
357.47	1314.05
357.68	1316.47
357.89	1315.73
358.10	1311.82
358.31	1315.54
358.52	1315.91
358.73	1309.77
358.94	1308.28
359.15	1318.71
359.36	1320.75
359.57	1321.31
359.78	1319.26
359.99	1317.77
360.20	1317.96
360.41	1320.75
360.62	1318.15
360.83	1313.87
361.04	1314.80
361.25	1309.02
361.46	1314.42
361.67	1322.62
361.88	1321.13
362.09	1322.80
362.30	1324.29
362.51	1321.87
362.72	1326.71
362.93	1329.50
363.14	1331.92
363.35	1330.25
363.56	1335.28
363.77	1329.13
363.98	1325.97
364.19	1322.06
364.40	1320.20
364.61	1321.68
364.82	1328.20
365.03	1327.64
365.24	1334.53
365.45	1336.21
365.66	1336.77
365.87	1336.39
366.08	1336.21
366.29	1330.99
366.50	1332.30
366.71	1336.21
366.92	1334.90
367.13	1336.58
367.34	1335.46
367.55	1328.57
367.76	1327.46
367.97	1332.11
368.18	1331.18
368.39	1331.55
368.60	1335.28
368.81	1341.42
369.01	1337.70
369.22	1339.93
369.43	1340.30
369.64	1343.28
369.85	1337.32
370.06	1334.53
370.27	1331.92
370.48	1331.74
370.69	1328.57
370.90	1326.90
371.11	1326.53
371.32	1327.08
371.53	1326.71
371.74	1324.85
371.95	1319.26
372.16	1321.87
372.37	1321.31
372.58	1322.24
372.79	1321.68
372.99	1327.64
373.20	1336.39
373.41	1335.09
373.62	1340.49
373.83	1342.35
374.04	1340.12
374.25	1343.84
374.46	1354.45
374.67	1357.80
374.88	1355.38
375.09	1355.57
375.30	1348.68
375.51	1342.16
375.72	1335.46
375.92	1328.20
376.13	1328.39
376.34	1333.60
376.55	1328.39
376.76	1322.80
376.97	1323.73
377.18	1322.62
377.39	1321.13
377.60	1321.31
377.81	1324.66
378.02	1327.83
378.22	1332.67
378.43	1328.57
378.64	1328.95
378.85	1331.37
379.06	1330.62
379.27	1330.62
379.48	1329.88
379.69	1335.09
379.90	1343.28
380.11	1335.46
380.31	1334.34
380.52	1332.30
380.73	1336.95
380.94	1324.48
381.15	1329.50
381.36	1326.71
381.57	1328.20
381.78	1327.46
381.99	1323.92
382.19	1322.24
382.40	1324.10
382.61	1322.62
382.82	1318.15
383.03	1317.40
383.24	1317.40
383.45	1310.14
383.65	1307.16
383.86	1306.60
384.07	1309.21
384.28	1307.35
384.49	1303.44
384.70	1306.42
384.91	1316.10
385.12	1321.68
385.32	1320.57
385.53	1328.76
385.74	1330.43
385.95	1333.41
386.16	1331.92
386.37	1331.18
386.58	1335.65
386.78	1340.49
386.99	1346.07
387.20	1343.47
387.41	1351.66
387.62	1352.96
387.83	1355.20
388.03	1350.73
388.24	1348.68
388.45	1353.71
388.66	1358.92
388.87	1358.18
389.08	1357.62
389.28	1352.40
389.49	1351.85
389.70	1339.37
389.91	1336.95
390.12	1330.81
390.33	1326.71
390.53	1325.41
390.74	1318.15
390.95	1317.77
391.16	1309.77
391.37	1309.77
391.58	1306.98
391.78	1306.05
391.99	1308.47
392.20	1307.35
392.41	1309.02
392.62	1316.84
392.82	1326.34
393.03	1326.34
393.24	1324.48
393.45	1331.92
393.66	1331.74
393.87	1333.41
394.07	1333.04
394.28	1333.41
394.49	1334.16
394.70	1343.28
394.91	1354.27
395.11	1350.73
395.32	1363.39
395.53	1367.48
395.74	1377.54
395.94	1384.99
396.15	1386.85
396.36	1395.97
396.57	1398.95
396.78	1405.09
396.98	1399.14
397.19	1395.78
397.40	1393.74
397.61	1382.19
397.82	1382.94
398.02	1366.18
398.23	1356.50
398.44	1357.24
398.65	1348.12
398.85	1347.56
399.06	1338.44
399.27	1333.23
399.48	1331.92
399.69	1331.92
399.89	1338.44
400.10	1330.62
400.31	1335.46
400.52	1339.19
400.72	1336.77
400.93	1332.48
401.14	1331.74
401.35	1334.72
401.55	1337.70
401.76	1336.21
401.97	1336.21
402.18	1328.95
402.38	1327.64
402.59	1324.85
402.80	1320.20
403.01	1321.31
403.21	1326.15
403.42	1331.74
403.63	1330.43
403.84	1331.55
404.04	1330.99
404.25	1330.62
404.46	1332.11
404.67	1330.06
404.87	1333.79
405.08	1335.46
405.29	1333.04
405.50	1333.79
405.70	1325.59
405.91	1325.97
406.12	1322.43
406.32	1324.29
406.53	1322.62
406.74	1323.92
406.95	1330.81
407.15	1328.76
407.36	1325.22
407.57	1327.64
407.77	1326.34
407.98	1336.58
408.19	1352.03
408.40	1366.93
408.60	1388.34
408.81	1415.89
409.02	1442.14
409.22	1468.02
409.43	1499.86
409.64	1533.00
409.85	1558.32
410.05	1577.68
410.26	1582.89
410.47	1578.24
410.67	1569.30
410.88	1543.61
411.09	1517.73
411.29	1487.20
411.50	1458.71
411.71	1429.48
411.92	1402.11
412.12	1364.69
412.33	1346.63
412.54	1329.50
412.74	1314.98
412.95	1313.31
413.16	1311.26
413.36	1312.38
413.57	1316.29
413.78	1316.66
413.98	1316.10
414.19	1313.49
414.40	1317.40
414.60	1315.17
414.81	1319.26
415.02	1323.17
415.22	1322.06
415.43	1324.29
415.64	1322.62
415.84	1320.75
416.05	1317.77
416.26	1319.64
416.46	1318.33
416.67	1323.36
416.88	1327.64
417.08	1330.43
417.29	1330.81
417.50	1332.67
417.70	1335.28
417.91	1328.20
418.12	1326.15
418.32	1326.53
418.53	1319.82
418.74	1317.77
418.94	1316.29
419.15	1310.89
419.36	1308.28
419.56	1304.00
419.77	1298.41
419.97	1298.04
420.18	1305.11
420.39	1301.95
420.59	1299.72
420.80	1303.81
421.01	1307.72
421.21	1306.79
421.42	1301.95
421.63	1297.48
421.83	1301.39
422.04	1305.30
422.24	1301.39
422.45	1300.46
422.66	1309.96
422.86	1308.65
423.07	1310.14
423.28	1310.89
423.48	1315.35
423.69	1320.94
423.89	1324.66
424.10	1321.31
424.31	1317.40
424.51	1322.80
424.72	1325.41
424.92	1326.15
425.13	1340.49
425.34	1334.34
425.54	1330.99
425.75	1328.01
425.95	1326.53
426.16	1325.78
426.37	1328.95
426.57	1332.86
426.78	1331.74
426.98	1332.48
427.19	1322.43
427.40	1314.05
427.60	1315.17
427.81	1311.26
428.01	1309.58
428.22	1313.31
428.43	1314.98
428.63	1319.82
428.84	1314.80
429.04	1311.26
429.25	1307.72
429.45	1311.07
429.66	1311.82
429.87	1308.28
430.07	1317.77
430.28	1317.96
430.48	1315.17
430.69	1311.26
430.89	1305.11
431.10	1305.30
431.31	1303.25
431.51	1305.30
431.72	1323.55
431.92	1356.31
432.13	1420.36
432.33	1497.25
432.54	1600.39
432.74	1726.62
432.95	1862.35
433.16	2010.92
433.36	2149.25
433.57	2270.45
433.77	2364.85
433.98	2437.64
434.18	2473.20
434.39	2452.54
434.59	2394.45
434.80	2310.11
435.01	2195.24
435.21	2063.98
435.42	1917.27
435.62	1785.27
435.83	1673.19
436.03	1578.61
436.24	1491.67
436.44	1423.34
436.65	1385.92
436.85	1364.32
437.06	1346.07
437.26	1334.90
437.47	1334.16
437.67	1331.74
437.88	1326.90
438.08	1320.38
438.29	1326.53
438.50	1322.99
438.70	1314.80
438.91	1318.52
439.11	1321.13
439.32	1325.97
439.52	1334.34
439.73	1326.71
439.93	1330.43
440.14	1338.44
440.34	1330.25
440.55	1322.43
440.75	1324.10
440.96	1328.76
441.16	1328.76
441.37	1325.41
441.57	1320.94
441.78	1312.75
441.98	1322.80
442.19	1320.01
442.39	1312.93
442.60	1327.64
442.80	1327.08
443.01	1330.81
443.21	1332.86
443.42	1329.50
443.62	1331.92
443.83	1337.14
444.03	1334.53
444.23	1331.18
444.44	1336.95
444.64	1334.34
444.85	1328.57
445.05	1330.43
445.26	1331.55
445.46	1331.18
445.67	1329.69
445.87	1327.08
446.08	1325.78
446.28	1331.37
446.49	1334.53
446.69	1326.34
446.90	1329.50
447.10	1330.99
447.31	1332.30
447.51	1329.32
447.71	1326.71
447.92	1325.97
448.12	1325.78
448.33	1323.55
448.53	1321.31
448.74	1314.42
448.94	1322.99
449.15	1322.99
449.35	1322.06
449.56	1323.17
449.76	1324.29
449.96	1326.34
450.17	1325.97
450.37	1322.06
450.58	1321.68
450.78	1319.45
450.99	1318.33
451.19	1311.82
451.39	1309.58
451.60	1311.07
451.80	1309.96
452.01	1300.27
452.21	1299.16
452.42	1300.65
452.62	1304.56
452.82	1307.53
453.03	1307.91
453.23	1306.98
453.44	1303.81
453.64	1301.20
453.85	1302.32
454.05	1302.88
454.25	1312.56
454.46	1320.01
454.66	1314.98
454.87	1314.24
455.07	1314.24
455.27	1317.77
455.48	1320.57
455.68	1322.24
455.89	1335.65
456.09	1335.46
456.29	1342.35
456.50	1346.82
456.70	1344.58
456.91	1359.29
457.11	1362.64
457.31	1361.15
457.52	1362.46
457.72	1363.76
457.93	1368.04
458.13	1356.50
458.33	1349.98
458.54	1340.12
458.74	1328.39
458.95	1323.73
459.15	1316.66
459.35	1316.10
459.56	1313.68
459.76	1306.79
459.96	1303.63
460.17	1301.58
460.37	1307.91
460.58	1316.47
460.78	1311.63
460.98	1317.77
461.19	1322.99
461.39	1326.90
461.59	1329.50
461.80	1336.58
462.00	1347.00
462.21	1351.10
462.41	1354.64
462.61	1353.71
462.82	1348.31
463.02	1354.82
463.22	1355.57
463.43	1349.98
463.63	1346.82
463.83	1341.23
464.04	1331.18
464.24	1324.10
464.44	1319.08
464.65	1309.21
464.85	1306.98
465.05	1305.49
465.26	1300.46
465.46	1291.34
465.66	1294.32
465.87	1294.13
466.07	1299.53
466.27	1299.72
466.48	1298.60
466.68	1304.74
466.88	1315.91
467.09	1312.38
467.29	1310.89
467.49	1320.75
467.70	1329.13
467.90	1325.97
468.10	1323.36
468.31	1320.94
468.51	1327.27
468.71	1324.85
468.92	1320.94
469.12	1313.12
469.32	1317.96
469.53	1319.08
469.73	1315.91
469.93	1314.61
470.14	1315.91
470.34	1312.93
470.54	1316.10
470.74	1317.22
470.95	1317.03
471.15	1315.73
471.35	1317.03
471.56	1316.66
471.76	1318.71
471.96	1313.68
472.17	1312.00
472.37	1314.61
472.57	1322.80
472.77	1322.80
472.98	1323.92
473.18	1332.86
473.38	1342.35
473.59	1344.40
473.79	1347.19
473.99	1349.43
474.19	1352.78
474.40	1357.62
474.60	1353.89
474.80	1344.77
475.01	1343.65
475.21	1343.47
475.41	1341.98
475.61	1339.74
475.82	1337.51
476.02	1344.21
476.22	1344.96
476.42	1345.52
476.63	1343.65
476.83	1350.36
477.03	1354.45
477.24	1351.66
477.44	1351.85
477.64	1349.05
477.84	1349.80
478.05	1354.08
478.25	1349.98
478.45	1347.38
478.65	1356.69
478.86	1356.69
479.06	1351.10
479.26	1358.18
479.46	1360.22
479.67	1364.32
479.87	1366.55
480.07	1364.69
480.27	1368.79
480.48	1363.02
480.68	1374.19
480.88	1372.88
481.08	1384.61
481.28	1386.85
481.49	1386.29
481.69	1388.15
481.89	1388.71
482.09	1400.25
482.30	1404.16
482.50	1407.51
482.70	1420.36
482.90	1423.34
483.11	1429.48
483.31	1433.39
483.51	1451.45
483.71	1492.97
483.91	1715.83
484.12	2215.90
484.32	2998.23
484.52	4119.21
484.72	5474.78
484.92	6993.44
485.13	8527.56
485.33	10062.04
485.53	11516.29
485.73	12833.88
485.93	14042.55
486.14	14910.70
486.34	15307.26
486.54	15197.23
486.74	14577.63
486.94	13567.79
487.15	12279.43
487.35	10878.25
487.55	9416.00
487.75	7995.27
487.95	6687.74
488.16	5451.51
488.36	4370.74
488.56	3478.57
488.76	2805.72
488.96	2311.04
489.17	1957.86
489.37	1722.90
489.57	1585.31
489.77	1506.56
489.97	1460.76
490.17	1431.72
490.38	1412.35
490.58	1403.42
490.78	1399.51
490.98	1389.45
491.18	1386.10
491.38	1387.96
491.59	1388.52
491.79	1383.31
491.99	1382.38
492.19	1387.03
492.39	1396.34
492.59	1398.20
492.80	1394.11
493.00	1386.29
493.20	1388.71
493.40	1387.41
493.60	1385.54
493.80	1384.24
494.00	1385.73
494.21	1380.70
494.41	1372.51
494.61	1366.93
494.81	1366.74
495.01	1361.15
495.21	1361.90
495.41	1363.39
495.62	1354.27
495.82	1355.76
496.02	1352.03
496.22	1351.47
496.42	1349.05
496.62	1347.00
496.82	1344.96
497.02	1349.98
497.23	1350.36
497.43	1347.38
497.63	1340.67
497.83	1341.23
498.03	1340.12
498.23	1335.65
498.43	1333.23
498.63	1335.09
498.84	1342.16
499.04	1342.16
499.24	1333.97
499.44	1336.02
499.64	1337.51
499.84	1333.97
500.04	1342.72
500.24	1338.25
500.44	1335.83
500.65	1337.14
500.85	1336.02
501.05	1332.30
501.25	1335.65
501.45	1339.37
501.65	1340.30
501.85	1344.40
502.05	1350.91
502.25	1345.89
502.45	1345.14
502.65	1346.07
502.86	1345.14
503.06	1343.28
503.26	1339.37
503.46	1333.60
503.66	1329.50
503.86	1332.11
504.06	1331.37
504.26	1326.15
504.46	1320.01
504.66	1322.62
504.86	1330.99
505.06	1330.43
505.26	1330.99
505.47	1333.23
505.67	1333.60
505.87	1338.44
506.07	1338.63
506.27	1338.07
506.47	1342.35
506.67	1348.87
506.87	1346.07
507.07	1337.32
507.27	1337.51
507.47	1335.65
507.67	1328.76
507.87	1328.01
508.07	1322.99
508.27	1321.68
508.47	1321.68
508.67	1317.96
508.87	1315.91
509.08	1319.82
509.28	1319.82
509.48	1316.29
509.68	1318.52
509.88	1323.92
510.08	1325.59
510.28	1332.86
510.48	1330.62
510.68	1330.06
510.88	1324.48
511.08	1321.31
511.28	1316.84
511.48	1322.99
511.68	1326.53
511.88	1326.90
512.08	1328.20
512.28	1327.08
512.48	1324.10
512.68	1320.75
512.88	1321.87
513.08	1332.30
513.28	1336.02
513.48	1340.30
513.68	1335.46
513.88	1333.04
514.08	1332.67
514.28	1332.48
514.48	1328.95
514.68	1326.53
514.88	1333.79
515.08	1328.76
515.28	1325.22
515.48	1323.55
515.68	1324.29
515.88	1326.71
516.08	1327.08
516.28	1327.46
516.48	1325.04
516.68	1333.41
516.88	1330.99
517.08	1334.34
517.28	1332.67
517.48	1333.23
517.68	1327.27
517.88	1324.10
518.08	1325.78
518.28	1330.99
518.48	1330.99
518.68	1331.55
518.88	1329.32
519.08	1334.72
519.28	1329.32
519.48	1335.83
519.68	1334.53
519.88	1338.63
520.08	1339.19
520.28	1334.90
520.48	1329.88
520.68	1328.57
520.88	1329.13
521.08	1323.73
521.28	1318.52
521.47	1315.91
521.67	1309.40
521.87	1308.28
522.07	1303.25
522.27	1304.74
522.47	1307.91
522.67	1305.49
522.87	1310.70
523.07	1309.58
523.27	1308.28
523.47	1309.77
523.67	1314.61
523.87	1321.68
524.07	1324.66
524.27	1328.76
524.47	1328.95
524.67	1327.64
524.87	1330.62
525.06	1326.90
525.26	1321.50
525.46	1320.57
525.66	1326.15
525.86	1320.75
526.06	1316.10
526.26	1314.05
526.46	1316.29
526.66	1317.40
526.86	1317.22
527.06	1314.80
527.26	1321.87
527.46	1332.86
527.65	1338.07
527.85	1327.46
528.05	1330.62
528.25	1326.15
528.45	1325.97
528.65	1327.46
528.85	1328.39
529.05	1329.32
529.25	1332.86
529.45	1326.90
529.65	1326.90
529.84	1325.41
530.04	1329.69
530.24	1334.72
530.44	1337.51
530.64	1341.98
530.84	1346.26
531.04	1346.45
531.24	1345.33
531.44	1342.16
531.63	1338.63
531.83	1328.95
532.03	1331.74
532.23	1332.67
532.43	1327.83
532.63	1336.39
532.83	1330.62
533.03	1319.64
533.22	1321.13
533.42	1322.99
533.62	1322.62
533.82	1326.53
534.02	1330.43
534.22	1325.97
534.42	1325.04
534.62	1320.38
534.81	1309.40
535.01	1315.17
535.21	1319.08
535.41	1310.33
535.61	1309.40
535.81	1307.53
536.01	1305.30
536.20	1310.14
536.40	1310.14
536.60	1312.00
536.80	1317.40
537.00	1317.77
537.20	1313.87
537.39	1314.98
537.59	1321.31
537.79	1319.82
537.99	1323.17
538.19	1321.50
538.39	1319.08
538.59	1331.18
538.78	1333.41
538.98	1331.92
539.18	1335.83
539.38	1341.61
539.58	1346.63
539.78	1346.07
539.97	1343.28
540.17	1343.65
540.37	1345.52
540.57	1349.98
540.77	1337.14
540.96	1336.39
541.16	1342.91
541.36	1349.24
541.56	1347.19
541.76	1345.14
541.96	1349.43
542.15	1357.80
542.35	1356.13
542.55	1352.78
542.75	1347.19
542.95	1351.66
543.14	1349.98
543.34	1343.28
543.54	1343.47
543.74	1338.07
543.94	1338.63
544.13	1325.04
544.33	1320.38
544.53	1322.43
544.73	1330.99
544.93	1329.50
545.12	1331.18
545.32	1329.32
545.52	1327.64
545.72	1322.99
545.91	1328.01
546.11	1323.17
546.31	1326.53
546.51	1326.53
546.71	1332.67
546.90	1324.66
547.10	1329.88
547.30	1328.20
547.50	1331.18
547.69	1331.18
547.89	1324.85
548.09	1323.17
548.29	1323.55
548.49	1324.66
548.68	1323.55
548.88	1313.87
549.08	1313.49
549.28	1311.82
549.47	1316.10
549.67	1312.75
549.87	1307.72
550.07	1310.33
550.26	1309.02
550.46	1307.35
550.66	1306.42
550.86	1309.77
551.05	1308.47
551.25	1314.98
551.45	1314.24
551.65	1312.19
551.84	1317.03
552.04	1317.96
552.24	1323.73
552.44	1322.62
552.63	1327.27
552.83	1328.76
553.03	1329.32
553.22	1326.53
553.42	1320.20
553.62	1317.22
553.82	1312.00
554.01	1309.58
554.21	1313.31
554.41	1313.12
554.61	1315.73
554.80	1309.77
555.00	1312.75
555.20	1307.91
555.39	1316.84
555.59	1317.40
555.79	1323.55
555.99	1328.95
556.18	1327.83
556.38	1328.57
556.58	1326.90
556.77	1323.92
556.97	1326.53
557.17	1324.48
557.37	1325.04
557.56	1323.17
557.76	1327.27
557.96	1325.04
558.15	1313.68
558.35	1314.42
558.55	1314.24
558.74	1315.54
558.94	1314.05
559.14	1316.29
559.33	1320.20
559.53	1321.13
559.73	1321.87
559.93	1319.64
560.12	1317.96
560.32	1331.74
560.52	1335.28
560.71	1336.58
560.91	1333.60
561.11	1333.41
561.30	1329.69
561.50	1329.32
561.70	1326.15
561.89	1321.87
562.09	1318.71
562.29	1314.05
562.48	1307.35
562.68	1303.07
562.88	1303.25
563.07	1303.25
563.27	1309.21
563.47	1306.60
563.66	1303.44
563.86	1306.05
564.06	1310.89
564.25	1314.42
564.45	1324.85
564.64	1327.64
564.84	1331.37
565.04	1330.43
565.23	1331.74
565.43	1326.34
565.63	1333.60
565.82	1338.44
566.02	1338.81
566.22	1335.83
566.41	1335.83
566.61	1327.64
566.81	1322.43
567.00	1323.17
567.20	1330.81
567.39	1334.53
567.59	1339.56
567.79	1344.21
567.98	1342.72
568.18	1343.47
568.38	1348.68
568.57	1344.40
568.77	1344.96
568.96	1354.82
569.16	1350.91
569.36	1344.77
569.55	1339.37
569.75	1340.30
569.94	1341.23
570.14	1343.84
570.34	1337.70
570.53	1333.79
570.73	1342.91
570.92	1341.23
571.12	1339.74
571.32	1346.82
571.51	1348.68
571.71	1353.52
571.90	1357.24
572.10	1353.33
572.30	1349.05
572.49	1367.11
572.69	1366.37
572.88	1360.78
573.08	1367.48
573.28	1369.72
573.47	1362.64
573.67	1355.57
573.86	1351.85
574.06	1351.85
574.26	1351.47
574.45	1355.57
574.65	1348.68
574.84	1353.52
575.04	1354.64
575.23	1354.45
575.43	1353.15
575.63	1357.24
575.82	1366.18
576.02	1365.81
576.21	1357.62
576.41	1360.04
576.60	1361.15
576.80	1362.09
576.99	1363.39
577.19	1373.44
577.39	1375.68
577.58	1367.67
577.78	1368.42
577.97	1367.11
578.17	1368.79
578.36	1379.03
578.56	1375.86
578.75	1374.37
578.95	1371.58
579.15	1372.14
579.34	1366.74
579.54	1368.42
579.73	1376.61
579.93	1380.89
580.12	1384.61
580.32	1390.01
580.51	1390.38
580.71	1396.53
580.90	1400.62
581.10	1404.16
581.29	1401.93
581.49	1405.47
581.68	1406.40
581.88	1415.70
582.07	1415.33
582.27	1416.08
582.47	1424.08
582.66	1420.73
582.86	1418.68
583.05	1418.50
583.25	1415.70
583.44	1423.52
583.64	1422.59
583.83	1411.24
584.03	1393.92
584.22	1384.61
584.42	1381.08
584.61	1371.77
584.81	1366.18
585.00	1363.95
585.20	1360.04
585.39	1361.53
585.59	1350.91
585.78	1343.65
585.98	1350.73
586.17	1356.50
586.37	1365.81
586.56	1369.16
586.76	1368.97
586.95	1372.51
587.15	1371.95
587.34	1373.26
587.54	1373.44
587.73	1381.08
587.92	1384.43
588.12	1383.50
588.31	1383.87
588.51	1381.82
588.70	1382.57
588.90	1381.63
589.09	1375.30
589.29	1376.05
589.48	1370.46
589.68	1367.67
589.87	1364.51
590.07	1359.29
590.26	1358.36
590.46	1357.99
590.65	1357.06
590.84	1354.45
591.04	1351.47
591.23	1362.83
591.43	1365.44
591.62	1374.75
591.82	1382.94
592.01	1382.94
592.21	1392.25
592.40	1391.69
592.59	1399.14
592.79	1403.60
592.98	1407.14
593.18	1416.26
593.37	1411.61
593.57	1409.00
593.76	1406.21
593.96	1396.53
594.15	1394.85
594.34	1390.20
594.54	1391.69
594.73	1381.45
594.93	1374.19
595.12	1368.23
595.32	1355.94
595.51	1351.66
595.70	1354.08
595.90	1349.05
596.09	1352.03
596.29	1350.36
596.48	1349.05
596.67	1355.01
596.87	1357.80
597.06	1364.13
597.26	1363.76
597.45	1367.67
597.65	1370.09
597.84	1375.30
598.03	1387.03
598.23	1392.80
598.42	1395.78
598.62	1396.16
598.81	1385.73
599.00	1384.05
599.20	1375.30
599.39	1375.68
599.58	1376.42
599.78	1376.98
599.97	1367.67
600.17	1356.50
600.36	1350.17
600.55	1350.36
600.75	1356.50
600.94	1362.27
601.14	1365.81
601.33	1373.26
601.52	1373.07
601.72	1369.35
601.91	1375.12
602.10	1376.79
602.30	1381.08
602.49	1386.85
602.69	1384.05
602.88	1380.70
603.07	1387.41
603.27	1392.62
603.46	1391.50
603.65	1393.55
603.85	1396.16
604.04	1390.57
604.23	1390.57
604.43	1386.10
604.62	1379.96
604.82	1382.75
605.01	1381.63
605.20	1370.28
605.40	1367.30
605.59	1359.67
605.78	1356.69
605.98	1358.55
606.17	1362.64
606.36	1361.34
606.56	1361.90
606.75	1363.95
606.94	1360.22
607.14	1362.09
607.33	1368.23
607.52	1366.00
607.72	1372.14
607.91	1366.93
608.10	1367.48
608.30	1366.37
608.49	1363.76
608.68	1367.30
608.88	1366.55
609.07	1366.93
609.26	1362.64
609.46	1360.22
609.65	1359.67
609.84	1352.78
610.03	1359.11
610.23	1362.27
610.42	1361.90
610.61	1366.93
610.81	1366.93
611.00	1367.86
611.19	1368.04
611.39	1373.63
611.58	1376.98
611.77	1373.07
611.97	1374.93
612.16	1380.52
612.35	1377.72
612.54	1378.84
612.74	1381.26
612.93	1379.59
613.12	1380.14
613.32	1380.33
613.51	1375.86
613.70	1376.05
613.89	1384.99
614.09	1384.43
614.28	1379.21
614.47	1377.35
614.67	1372.88
614.86	1370.65
615.05	1367.30
615.24	1361.34
615.44	1355.57
615.63	1356.69
615.82	1353.33
616.01	1345.52
616.21	1343.65
616.40	1340.49
616.59	1338.63
616.78	1340.49
616.98	1333.60
617.17	1336.39
617.36	1342.35
617.56	1346.82
617.75	1340.67
617.94	1341.05
618.13	1342.54
618.33	1346.07
618.52	1348.49
618.71	1344.96
618.90	1345.52
619.10	1344.40
619.29	1339.37
619.48	1334.34
619.67	1329.88
619.86	1331.55
620.06	1330.99
620.25	1331.18
620.44	1327.27
620.63	1328.20
620.83	1331.37
621.02	1326.71
621.21	1330.25
621.40	1331.92
621.60	1328.76
621.79	1327.64
621.98	1334.34
622.17	1334.90
622.36	1333.04
622.56	1339.19
622.75	1338.25
622.94	1337.14
623.13	1336.02
623.33	1340.67
623.52	1344.77
623.71	1344.77
623.90	1350.91
624.09	1348.12
624.29	1346.45
624.48	1346.45
624.67	1346.45
624.86	1342.91
625.05	1345.52
625.25	1347.56
625.44	1339.56
625.63	1339.56
625.82	1346.63
626.01	1346.63
626.21	1341.23
626.40	1336.77
626.59	1338.07
626.78	1336.21
626.97	1342.72
627.16	1341.98
627.36	1345.52
627.55	1354.27
627.74	1354.27
627.93	1351.29
628.12	1355.76
628.31	1362.46
628.51	1374.19
628.70	1376.42
628.89	1374.56
629.08	1374.37
629.27	1376.05
629.47	1373.63
629.66	1372.33
629.85	1373.44
630.04	1377.35
630.23	1372.51
630.42	1372.51
630.61	1365.25
630.81	1366.37
631.00	1374.00
631.19	1370.28
631.38	1373.07
631.57	1378.10
631.76	1379.03
631.96	1380.14
632.15	1376.24
632.34	1381.82
632.53	1384.05
632.72	1394.29
632.91	1394.29
633.10	1396.71
633.29	1400.25
633.49	1397.27
633.68	1389.83
633.87	1392.80
634.06	1392.80
634.25	1393.36
634.44	1391.87
634.63	1394.48
634.83	1389.45
635.02	1387.22
635.21	1381.08
635.40	1380.70
635.59	1385.17
635.78	1391.69
635.97	1387.03
636.16	1390.38
636.35	1394.29
636.55	1394.48
636.74	1389.08
636.93	1386.66
637.12	1389.27
637.31	1390.01
637.50	1386.66
637.69	1382.38
637.88	1380.14
638.07	1384.05
638.26	1384.24
638.46	1381.45
638.65	1381.82
638.84	1384.24
639.03	1387.22
639.22	1387.78
639.41	1389.64
639.60	1388.90
639.79	1393.92
639.98	1392.25
640.17	1390.01
640.36	1388.15
640.56	1391.69
640.75	1393.36
640.94	1388.71
641.13	1397.09
641.32	1395.04
641.51	1397.27
641.70	1405.65
641.89	1399.88
642.08	1405.28
642.27	1411.98
642.46	1415.33
642.65	1419.06
642.84	1426.69
643.03	1435.44
643.22	1427.43
643.42	1436.18
643.61	1433.95
643.80	1432.27
643.99	1443.82
644.18	1448.84
644.37	1444.19
644.56	1441.58
644.75	1438.05
644.94	1432.65
645.13	1432.09
645.32	1432.65
645.51	1432.27
645.70	1431.16
645.89	1431.90
646.08	1437.12
646.27	1436.00
646.46	1440.09
646.65	1441.03
646.84	1444.56
647.03	1448.47
647.22	1449.22
647.41	1449.59
647.60	1447.17
647.79	1453.13
647.98	1457.60
648.17	1453.50
648.36	1452.75
648.56	1455.17
648.75	1460.39
648.94	1465.04
649.13	1465.97
649.32	1471.19
649.51	1479.38
649.70	1485.71
649.89	1494.46
650.08	1493.90
650.27	1494.83
650.46	1501.16
650.65	1510.84
650.84	1523.87
651.03	1538.77
651.22	1551.24
651.41	1570.23
651.60	1590.90
651.79	1612.50
651.98	1637.07
652.17	1668.91
652.36	1700.74
652.55	1724.76
652.74	1744.50
652.92	1760.14
653.11	1780.43
653.30	1804.45
653.49	1831.26
653.68	1876.87
653.87	2028.79
654.06	2678.74
654.25	4742.91
654.44	8541.71
654.63	14088.72
654.82	19882.24
655.01	25676.13
655.20	31462.39
655.39	37248.08
655.58	43023.54
655.77	48777.03
655.96	54423.84
656.15	59566.66
656.34	63295.27
656.53	65285.71
656.72	65535.00
656.91	65535.00
657.10	65535.00
657.29	65535.00
657.48	65535.00
657.67	65535.00
657.86	63951.92
658.04	59316.06
658.23	54297.80
658.42	49011.99
658.61	43541.12
658.80	37948.30
658.99	32292.00
659.18	26587.29
659.37	20853.35
659.56	15089.62
659.75	9311.74
659.94	5121.78
660.13	3969.34
660.32	3188.50
660.51	2670.74
660.69	2338.41
660.88	2129.70
661.07	1974.24
661.26	1865.33
661.45	1790.48
661.64	1738.35
661.83	1702.79
662.02	1661.09
662.21	1625.53
662.40	1601.33
662.59	1581.59
662.78	1558.69
662.96	1536.72
663.15	1521.45
663.34	1508.79
663.53	1489.43
663.72	1480.87
663.91	1464.30
664.10	1458.53
664.29	1458.34
664.48	1454.80
664.66	1454.24
664.85	1454.06
665.04	1448.84
665.23	1444.19
665.42	1437.12
665.61	1436.18
665.80	1432.46
665.99	1431.90
666.18	1425.39
666.36	1414.96
666.55	1411.24
666.74	1403.98
666.93	1403.79
667.12	1399.51
667.31	1402.86
667.50	1401.18
667.69	1398.76
667.87	1391.69
668.06	1392.99
668.25	1384.80
668.44	1389.64
668.63	1392.62
668.82	1392.99
669.01	1386.47
669.19	1380.70
669.38	1373.44
669.57	1373.81
669.76	1369.90
669.95	1368.42
670.14	1361.34
670.32	1369.35
670.51	1360.60
670.70	1352.22
670.89	1354.27
671.08	1353.15
671.27	1362.83
671.46	1366.18
671.64	1368.60
671.83	1368.79
672.02	1372.14
672.21	1369.35
672.40	1362.09
672.59	1364.32
672.77	1366.00
672.96	1363.95
673.15	1365.25
673.34	1358.18
673.53	1349.61
673.71	1346.63
673.90	1343.84
674.09	1347.38
674.28	1355.94
674.47	1352.40
674.66	1351.47
674.84	1350.54
675.03	1345.70
675.22	1337.88
675.41	1336.58
675.60	1341.42
675.78	1339.00
675.97	1341.98
676.16	1343.65
676.35	1333.97
676.54	1339.56
676.72	1342.35
676.91	1343.84
677.10	1344.03
677.29	1342.54
677.47	1342.91
677.66	1345.70
677.85	1349.24
678.04	1347.00
678.23	1334.34
678.41	1346.63
678.60	1342.35
678.79	1339.19
678.98	1335.28
679.17	1334.90
679.35	1343.65
679.54	1341.05
679.73	1343.84
679.92	1344.21
680.10	1342.91
680.29	1345.52
680.48	1334.16
680.67	1330.81
680.85	1332.11
681.04	1331.18
681.23	1332.48
681.42	1326.71
681.60	1328.39
681.79	1321.50
681.98	1318.89
682.17	1318.33
682.35	1322.24
682.54	1326.53
682.73	1331.55
682.92	1334.16
683.10	1334.34
683.29	1337.32
683.48	1344.58
683.67	1345.52
683.85	1347.94
684.04	1348.68
684.23	1351.47
684.42	1343.65
684.60	1347.19
684.79	1353.15
684.98	1347.19
685.16	1348.68
685.35	1336.95
685.54	1334.90
685.73	1336.02
685.91	1333.79
686.10	1328.57
686.29	1325.97
686.48	1327.64
686.66	1322.80
686.85	1319.64
687.04	1319.08
687.22	1320.20
687.41	1324.10
687.60	1318.15
687.78	1314.05
687.97	1311.44
688.16	1312.19
688.35	1314.05
688.53	1314.42
688.72	1309.96
688.91	1305.86
689.09	1303.44
689.28	1305.67
689.47	1312.93
689.65	1310.89
689.84	1309.77
690.03	1307.72
690.22	1304.93
690.40	1304.56
690.59	1310.89
690.78	1318.33
690.96	1321.87
691.15	1320.94
691.34	1313.68
691.52	1307.91
691.71	1312.19
691.90	1317.96
692.08	1317.59
692.27	1320.38
692.46	1318.15
692.64	1313.87
692.83	1306.42
693.02	1298.97
693.20	1298.04
693.39	1301.58
693.58	1294.87
693.76	1296.18
693.95	1289.85
694.14	1297.85
694.32	1296.74
694.51	1295.06
694.70	1296.36
694.88	1298.04
695.07	1296.36
695.25	1302.88
695.44	1302.51
695.63	1305.86
695.81	1307.53
696.00	1310.70
696.19	1308.28
696.37	1310.33
696.56	1316.29
696.75	1321.31
696.93	1322.62
697.12	1318.52
697.30	1314.24
697.49	1313.68
697.68	1314.80
697.86	1309.21
698.05	1311.26
698.24	1310.51
698.42	1307.91
698.61	1302.14
698.79	1292.27
698.98	1293.76
699.17	1299.34
699.35	1302.69
699.54	1299.34
699.72	1300.65
699.91	1302.88
700.10	1298.41
700.28	1300.83
700.47	1301.95
700.65	1298.78
700.84	1298.60
701.03	1300.09
701.21	1300.27
701.40	1305.49
701.58	1307.35
701.77	1306.23
701.96	1310.14
702.14	1308.47
702.33	1300.83
702.51	1301.20
702.70	1307.16
702.89	1311.26
703.07	1312.00
703.26	1314.05
703.44	1302.88
703.63	1304.00
703.81	1303.07
704.00	1300.65
704.19	1301.95
704.37	1306.79
704.56	1306.79
704.74	1301.20
704.93	1295.62
705.11	1286.87
705.30	1284.63
705.49	1289.66
705.67	1289.48
705.86	1290.97
706.04	1290.41
706.23	1294.87
706.41	1291.34
706.60	1293.57
706.78	1308.47
706.97	1317.22
707.16	1322.99
707.34	1324.66
707.53	1323.17
707.71	1319.82
707.90	1318.71
708.08	1319.82
708.27	1315.54
708.45	1316.84
708.64	1316.84
708.82	1314.24
709.01	1312.00
709.19	1312.00
709.38	1307.91
709.56	1314.98
709.75	1319.45
709.94	1321.87
710.12	1315.73
710.31	1318.89
710.49	1326.34
710.68	1327.27
710.86	1318.71
711.05	1315.91
711.23	1311.82
711.42	1315.54
711.60	1308.84
711.79	1311.07
711.97	1316.29
712.16	1319.08
712.34	1317.96
712.53	1319.26
712.71	1316.84
712.90	1315.54
713.08	1312.19
713.27	1312.93
713.45	1320.01
713.64	1324.66
713.82	1322.99
714.01	1312.75
714.19	1314.24
714.38	1314.61
714.56	1303.07
714.75	1300.27
714.93	1302.14
715.12	1301.76
715.30	1306.98
715.49	1298.97
715.67	1297.11
715.85	1297.30
716.04	1294.32
716.22	1298.97
716.41	1301.76
716.59	1301.76
716.78	1307.35
716.96	1308.65
717.15	1312.93
717.33	1309.96
717.52	1308.65
717.70	1307.91
717.89	1310.70
718.07	1312.93
718.25	1309.77
718.44	1311.82
718.62	1317.96
718.81	1316.66
718.99	1320.01
719.18	1312.38
719.36	1309.21
719.55	1313.31
719.73	1312.56
719.92	1310.33
720.10	1312.93
720.28	1307.16
720.47	1300.09
720.65	1299.90
720.84	1295.99
721.02	1293.76
721.21	1296.92
721.39	1299.34
721.57	1298.60
721.76	1303.63
721.94	1293.01
722.13	1297.30
722.31	1300.83
722.50	1302.32
722.68	1302.32
722.86	1304.93
723.05	1304.00
723.23	1308.47
723.42	1311.26
723.60	1305.67
723.78	1297.30
723.97	1309.96
724.15	1304.93
724.34	1306.05
724.52	1306.98
724.70	1301.58
724.89	1304.37
725.07	1305.86
725.26	1307.35
725.44	1302.88
725.62	1309.40
725.81	1314.05
725.99	1306.98
726.18	1307.16
726.36	1305.86
726.54	1304.74
726.73	1310.51
726.91	1304.56
727.10	1300.65
727.28	1298.60
727.46	1301.95
727.65	1299.53
727.83	1302.32
728.01	1304.18
728.20	1309.96
728.38	1320.20
728.57	1321.87
728.75	1320.94
728.93	1328.01
729.12	1331.74
729.30	1336.95
729.48	1338.25
729.67	1332.48
729.85	1328.95
730.03	1330.81
730.22	1329.13
730.40	1318.33
730.58	1321.31
730.77	1320.20
730.95	1317.59
731.13	1312.38
731.32	1306.98
731.50	1306.23
731.69	1314.61
731.87	1313.68
732.05	1312.56
732.24	1308.47
732.42	1310.89
732.60	1301.20
732.79	1302.69
732.97	1300.46
733.15	1302.69
733.34	1304.18
733.52	1301.39
733.70	1295.62
733.89	1300.09
734.07	1300.65
734.25	1304.93
734.43	1299.34
734.62	1303.63
734.80	1298.60
734.98	1301.95
735.17	1299.90
735.35	1296.18
735.53	1296.92
735.72	1305.11
735.90	1301.02
736.08	1299.72
736.27	1299.53
736.45	1303.07
736.63	1304.56
736.81	1306.98
737.00	1304.93
737.18	1303.44
737.36	1307.91
737.55	1305.86
737.73	1302.69
737.91	1302.32
738.10	1298.41
738.28	1298.41
738.46	1294.69
738.64	1292.83
738.83	1290.22
739.01	1287.80
739.19	1288.54
739.38	1288.17
739.56	1285.75
739.74	1287.06
739.92	1283.89
740.11	1292.83
740.29	1289.85
740.47	1297.67
740.65	1304.18
740.84	1306.60
741.02	1310.33
741.20	1308.84
741.38	1301.02
741.57	1309.21
741.75	1306.60
741.93	1304.00
742.11	1299.34
742.30	1300.83
742.48	1297.67
742.66	1295.25
742.84	1298.23
743.03	1300.83
743.21	1300.83
743.39	1302.69
743.57	1300.46
743.76	1304.18
743.94	1313.68
744.12	1308.28
744.30	1306.60
744.49	1304.18
744.67	1304.00
744.85	1304.00
745.03	1303.44
745.22	1306.98
745.40	1308.28
745.58	1305.11
745.76	1299.34
745.94	1293.20
746.13	1301.20
746.31	1303.07
746.49	1305.67
746.67	1304.18
746.86	1301.58
747.04	1295.99
747.22	1295.06
747.40	1300.46
747.58	1299.53
747.77	1302.32
747.95	1301.20
748.13	1297.67
748.31	1294.13
748.49	1294.50
748.68	1293.94
748.86	1296.18
749.04	1296.92
749.22	1297.85
749.40	1299.34
749.59	1298.78
749.77	1300.09
749.95	1299.53
750.13	1301.58
750.31	1308.47
750.49	1310.70
750.68	1311.82
750.86	1306.23
751.04	1306.23
751.22	1307.91
751.40	1306.05
751.59	1301.95
751.77	1302.69
751.95	1311.26
752.13	1309.21
752.31	1298.78
752.49	1295.06
752.68	1293.57
752.86	1299.34
753.04	1302.14
753.22	1304.00
753.40	1304.74
753.58	1314.61
753.76	1315.91
753.95	1309.40
754.13	1306.05
754.31	1313.87
754.49	1320.94
754.67	1319.82
754.85	1320.57
755.04	1318.52
755.22	1315.54
755.40	1309.58
755.58	1303.81
755.76	1301.02
755.94	1302.51
756.12	1311.63
756.30	1311.63
756.49	1308.09
756.67	1314.42
756.85	1306.42
757.03	1304.00
757.21	1300.83
757.39	1306.05
757.57	1313.87
757.75	1312.56
757.94	1314.61
758.12	1314.24
758.30	1312.00
758.48	1308.47
758.66	1304.18
758.84	1310.89
759.02	1313.68
759.20	1320.94
759.38	1320.38
759.57	1319.26
759.75	1319.82
759.93	1321.68
760.11	1317.40
760.29	1322.99
760.47	1315.35
760.65	1323.73
760.83	1326.53
761.01	1319.82
761.19	1312.75
761.38	1308.84
761.56	1305.86
761.74	1309.21
761.92	1301.76
762.10	1299.72
762.28	1289.66
762.46	1295.43
762.64	1288.54
762.82	1287.24
763.00	1294.32
763.18	1294.69
763.36	1298.41
763.54	1297.30
763.73	1294.32
763.91	1301.20
764.09	1295.62
764.27	1299.16
764.45	1301.20
764.63	1298.78
764.81	1295.43
764.99	1294.69
765.17	1294.69
765.35	1293.76
765.53	1298.04
765.71	1300.46
765.89	1292.45
766.07	1296.55
766.25	1298.60
766.43	1297.11
766.61	1303.63
766.79	1301.39
766.98	1300.83
767.16	1306.60
767.34	1306.98
767.52	1298.78
767.70	1295.06
767.88	1297.30
768.06	1305.11
768.24	1302.88
768.42	1303.63
768.60	1298.23
768.78	1299.72
768.96	1295.06
769.14	1293.94
769.32	1289.66
769.50	1292.27
769.68	1291.15
769.86	1298.78
770.04	1289.48
770.22	1292.45
770.40	1293.76
770.58	1290.41
770.76	1287.80
770.94	1291.52
771.12	1289.10
771.30	1289.85
771.48	1291.90
771.66	1289.48
771.84	1281.84
772.02	1287.06
772.20	1288.36
772.38	1284.45
772.56	1287.99
772.74	1293.76
772.92	1296.92
773.10	1302.14
773.28	1304.74
773.46	1303.63
773.64	1306.05
773.82	1315.91
774.00	1313.68
774.18	1309.21
774.36	1311.63
774.54	1308.65
774.72	1307.16
774.90	1303.25
775.08	1304.74
775.26	1306.98
775.44	1307.16
775.62	1309.02
775.80	1305.30
775.97	1304.56
776.15	1309.21
776.33	1312.93
776.51	1316.66
776.69	1314.61
776.87	1317.77
777.05	1320.20
777.23	1322.24
777.41	1320.75
777.59	1319.08
777.77	1317.96
777.95	1317.96
778.13	1314.24
778.31	1313.49
778.49	1311.26
778.67	1314.24
778.85	1311.82
779.03	1310.14
779.21	1312.75
779.38	1313.31
779.56	1316.29
779.74	1317.59
779.92	1321.13
780.10	1327.08
780.28	1323.73
780.46	1321.31
780.64	1325.04
780.82	1328.76
781.00	1323.17
781.18	1317.40
781.36	1324.85
781.53	1317.40
781.71	1316.47
781.89	1314.61
782.07	1306.42
782.25	1306.79
782.43	1310.51
782.61	1301.39
782.79	1301.39
782.97	1300.65
783.15	1300.09
783.33	1290.41
783.50	1295.25
783.68	1295.81
783.86	1294.50
784.04	1298.78
784.22	1296.55
784.40	1294.50
784.58	1294.69
784.76	1293.39
784.94	1292.27
785.11	1292.45
785.29	1293.39
785.47	1294.32
785.65	1290.22
785.83	1287.43
786.01	1283.15
786.19	1290.59
786.37	1293.76
786.54	1289.10
786.72	1286.31
786.90	1288.92
787.08	1288.54
787.26	1288.17
787.44	1285.19
787.62	1286.31
787.79	1293.20
787.97	1302.51
788.15	1296.18
788.33	1293.94
788.51	1302.69
788.69	1304.18
788.87	1301.39
789.04	1301.76
789.22	1300.46
789.40	1296.92
789.58	1302.88
789.76	1302.88
789.94	1306.60
790.11	1301.02
790.29	1299.90
790.47	1297.11
790.65	1301.39
790.83	1299.90
791.01	1299.72
791.18	1298.97
791.36	1303.63
791.54	1289.29
791.72	1290.22
791.90	1273.46
792.07	1280.35
792.25	1287.80
792.43	1283.33
792.61	1277.00
792.79	1281.66
792.97	1277.93
793.14	1284.08
793.32	1280.73
793.50	1290.97
793.68	1284.08
793.86	1292.45
794.03	1288.54
794.21	1282.40
794.39	1291.34
794.57	1292.45
794.75	1286.68
794.92	1290.41
795.10	1289.29
795.28	1289.48
795.46	1286.68
795.64	1285.75
795.81	1279.42
795.99	1281.10
796.17	1281.10
796.35	1278.86
796.52	1279.42
796.70	1283.15
796.88	1281.10
797.06	1276.44
797.24	1281.10
797.41	1280.35
797.59	1283.15
797.77	1289.85
797.95	1291.71
798.12	1286.68
798.30	1285.19
798.48	1284.26
798.66	1279.98
798.83	1282.59
799.01	1285.19
799.19	1283.52
799.37	1284.82
799.54	1288.92
799.72	1288.36
799.90	1284.26
800.08	1293.01
800.25	1294.87
800.43	1292.08
800.61	1293.20
800.79	1287.06
800.96	1287.24
801.14	1290.41
801.32	1295.99
801.50	1288.54
801.67	1283.70
801.85	1289.48
802.03	1289.10
802.21	1287.24
802.38	1292.83
802.56	1296.18
802.74	1298.23
802.91	1302.88
803.09	1302.14
803.27	1290.97
803.45	1291.90
803.62	1290.97
803.80	1287.99
803.98	1286.68
804.15	1292.08
804.33	1291.52
804.51	1294.69
804.69	1302.14
804.86	1301.39
805.04	1299.16
805.22	1307.91
805.39	1314.42
805.57	1316.66
805.75	1319.64
805.92	1314.80
806.10	1308.84
806.28	1309.02
806.45	1305.49
806.63	1300.65
806.81	1297.85
806.99	1301.02
807.16	1299.34
807.34	1295.81
807.52	1295.81
807.69	1293.39
807.87	1295.06
808.05	1297.30
808.22	1298.97
808.40	1297.85
808.58	1296.92
808.75	1296.92
808.93	1298.23
809.11	1294.13
809.28	1297.48
809.46	1306.23
809.64	1308.09
809.81	1306.60
809.99	1306.79
810.17	1307.16
810.34	1307.53
810.52	1309.77
810.70	1313.12
810.87	1304.93
811.05	1310.70
811.22	1308.47
811.40	1301.02
811.58	1303.07
811.75	1300.27
811.93	1298.41
812.11	1297.11
812.28	1303.07
812.46	1302.14
812.64	1295.81
812.81	1304.37
812.99	1302.69
813.16	1303.63
813.34	1305.67
813.52	1301.02
813.69	1305.49
813.87	1307.53
814.05	1304.18
814.22	1303.07
814.40	1304.93
814.57	1308.84
814.75	1306.60
814.93	1306.98
815.10	1306.98
815.28	1303.63
815.46	1304.00
815.63	1304.37
815.81	1302.69
815.98	1305.67
816.16	1302.88
816.34	1298.97
816.51	1295.06
816.69	1292.64
816.86	1291.71
817.04	1290.97
817.21	1298.41
817.39	1301.39
817.57	1300.46
817.74	1295.43
817.92	1294.69
818.09	1293.20
818.27	1292.45
818.45	1292.08
818.62	1288.54
818.80	1287.80
818.97	1287.61
819.15	1282.21
819.32	1285.38
819.50	1290.78
819.68	1299.16
819.85	1298.78
820.03	1297.11
820.20	1300.09
820.38	1306.23
820.55	1317.96
820.73	1316.84
820.91	1313.68
821.08	1313.31
821.26	1309.02
821.43	1301.95
821.61	1300.27
821.78	1296.18
821.96	1297.85
822.13	1297.30
822.31	1295.81
822.48	1289.48
822.66	1283.33
822.84	1296.55
823.01	1290.59
823.19	1291.34
823.36	1295.25
823.54	1292.64
823.71	1295.25
823.89	1301.95
824.06	1290.03
824.24	1291.90
824.41	1288.73
824.59	1297.11
824.76	1289.85
824.94	1291.52
825.11	1291.15
825.29	1290.97
825.46	1293.94
825.64	1298.23
825.81	1290.03
825.99	1302.69
826.16	1294.50
826.34	1297.11
826.52	1298.04
826.69	1295.62
826.87	1297.48
827.04	1299.16
827.22	1293.94
827.39	1291.15
827.57	1288.54
827.74	1288.92
827.91	1289.29
828.09	1293.57
828.26	1288.92
828.44	1286.12
828.61	1285.94
828.79	1285.94
828.96	1287.06
829.14	1291.52
829.31	1297.30
829.49	1294.87
829.66	1299.53
829.84	1304.37
830.01	1307.16
830.19	1308.65
830.36	1306.60
830.54	1305.49
830.71	1307.53
830.89	1305.86
831.06	1304.37
831.24	1296.36
831.41	1298.23
831.58	1296.18
831.76	1287.24
831.93	1285.75
832.11	1288.92
832.28	1291.52
832.46	1292.64
832.63	1294.50
832.81	1292.27
832.98	1296.36
833.16	1298.78
833.33	1297.11
833.50	1295.43
833.68	1302.51
833.85	1301.95
834.03	1304.37
834.20	1301.76
834.38	1300.27
834.55	1292.83
834.72	1293.01
834.90	1295.06
835.07	1298.23
835.25	1297.11
835.42	1291.71
835.60	1288.36
835.77	1283.33
835.94	1280.91
836.12	1284.26
836.29	1283.52
836.47	1290.59
836.64	1289.66
836.81	1280.91
836.99	1273.46
837.16	1275.14
837.34	1283.52
837.51	1279.61
837.68	1279.61
837.86	1279.98
838.03	1276.82
838.21	1276.07
838.38	1279.79
838.55	1275.51
838.73	1280.73
838.90	1287.80
839.08	1284.82
839.25	1281.47
839.42	1282.21
839.60	1284.45
839.77	1278.12
839.95	1278.49
840.12	1278.30
840.29	1273.46
840.47	1276.44
840.64	1272.16
840.81	1267.32
840.99	1268.25
841.16	1261.36
841.34	1261.36
841.51	1260.62
841.68	1263.60
841.86	1262.67
842.03	1264.53
842.20	1265.46
842.38	1266.20
842.55	1263.97
842.72	1270.86
842.90	1273.65
843.07	1278.68
843.24	1283.15
843.42	1286.31
843.59	1284.82
843.77	1288.36
843.94	1289.85
844.11	1290.78
844.29	1289.29
844.46	1299.90
844.63	1298.41
844.81	1302.51
844.98	1304.18
845.15	1302.14
845.33	1304.93
845.50	1306.79
845.67	1306.05
845.85	1300.27
846.02	1299.34
846.19	1306.79
846.37	1292.27
846.54	1289.85
846.71	1285.01
846.88	1285.57
847.06	1283.89
847.23	1284.26
847.40	1282.21
847.58	1283.33
847.75	1289.10
847.92	1288.92
848.10	1286.87
848.27	1299.16
848.44	1301.76
848.62	1300.27
848.79	1303.44
848.96	1306.79
849.13	1305.11
849.31	1311.63
849.48	1307.53
849.65	1304.18
849.83	1308.47
850.00	1301.39
850.17	1292.45
850.34	1293.39
850.52	1299.16
850.69	1295.06
850.86	1295.62
851.04	1298.97
851.21	1295.43
851.38	1297.30
851.55	1299.34
851.73	1290.78
851.90	1293.20
852.07	1300.65
852.24	1295.81
852.42	1289.29
852.59	1293.01
852.76	1290.59
852.93	1286.50
853.11	1290.78
853.28	1297.11
853.45	1301.76
853.62	1309.40
853.80	1312.56
853.97	1314.98
854.14	1313.87
854.31	1321.50
854.49	1320.75
854.66	1321.31
854.83	1323.55
855.00	1322.43
855.18	1318.52
855.35	1310.33
855.52	1301.76
855.69	1295.81
855.87	1284.82
856.04	1287.43
856.21	1286.68
856.38	1286.50
856.56	1284.26
856.73	1280.91
856.90	1279.24
857.07	1274.40
857.24	1275.88
857.42	1279.42
857.59	1284.82
857.76	1288.17
857.93	1289.48
858.10	1283.15
858.28	1284.26
858.45	1288.73
858.62	1285.75
858.79	1290.03
858.96	1294.13
859.14	1293.76
859.31	1293.57
859.48	1291.90
859.65	1295.99
859.82	1292.27
860.00	1299.72
860.17	1295.99
860.34	1294.32
860.51	1298.41
860.68	1283.70
860.86	1287.80
861.03	1293.39
861.20	1302.14
861.37	1304.93
861.54	1302.51
861.71	1300.65
861.89	1291.90
862.06	1290.78
862.23	1291.34
862.40	1293.76
862.57	1300.65
862.74	1296.74
862.92	1298.04
863.09	1287.24
863.26	1286.31
863.43	1288.36
863.60	1288.92
863.77	1291.34
863.95	1293.94
864.12	1295.06
864.29	1295.81
864.46	1295.43
864.63	1293.39
864.80	1286.50
864.97	1291.15
865.15	1291.52
865.32	1290.41
865.49	1301.95
865.66	1302.51
865.83	1303.63
866.00	1296.55
866.17	1289.10
866.35	1291.34
866.52	1298.60
866.69	1294.69
866.86	1296.92
867.03	1293.39
867.20	1290.59
867.37	1283.15
867.54	1282.21
867.72	1281.10
867.89	1290.41
868.06	1291.90
868.23	1287.80
868.40	1286.50
868.57	1290.97
868.74	1289.66
868.91	1288.73
869.08	1288.54
869.26	1290.78
869.43	1286.87
869.60	1283.15
869.77	1276.26
869.94	1275.14
870.11	1288.36
870.28	1287.61
870.45	1286.50
870.62	1285.01
870.79	1288.92
870.96	1292.45
871.14	1290.59
871.31	1297.67
871.48	1304.56
871.65	1302.69
871.82	1302.69
871.99	1291.71
872.16	1292.83
872.33	1295.99
872.50	1289.48
872.67	1287.43
872.84	1282.59
873.01	1283.70
873.18	1282.77
873.35	1283.89
873.53	1285.75
873.70	1292.08
873.87	1296.18
874.04	1292.27
874.21	1293.76
874.38	1300.46
874.55	1298.41
874.72	1303.07
874.89	1297.85
875.06	1299.90
875.23	1292.83
875.40	1296.92
875.57	1298.04
875.74	1298.60
875.91	1293.01
876.08	1293.57
876.25	1291.90
876.42	1296.18
876.59	1298.60
876.76	1304.56
876.93	1304.18
877.10	1307.35
877.27	1300.65
877.44	1292.27
877.61	1288.92
877.79	1295.06
877.96	1293.39
878.13	1291.90
878.30	1287.61
878.47	1287.80
878.64	1282.21
878.81	1276.82
878.98	1270.30
879.15	1276.63
879.32	1283.89
879.49	1287.24
879.66	1280.91
879.83	1281.28
880.00	1289.85
880.17	1295.43
880.34	1289.66
880.51	1296.92
880.68	1306.60
880.85	1314.05
881.02	1311.07
881.19	1310.33
881.36	1308.28
881.53	1317.22
881.69	1314.42
881.86	1305.86
882.03	1304.00
882.20	1308.65
882.37	1302.32
882.54	1297.67
882.71	1295.25
882.88	1297.48
883.05	1291.34
883.22	1295.99
883.39	1291.71
883.56	1299.53
883.73	1299.90
883.90	1306.05
884.07	1299.90
884.24	1295.06
884.41	1296.18
884.58	1292.83
884.75	1288.54
884.92	1288.36
885.09	1283.89
885.26	1282.96
885.43	1279.98
885.60	1280.73
885.77	1277.19
885.93	1281.28
886.10	1286.68
886.27	1286.12
886.44	1287.43
886.61	1294.13
886.78	1293.76
886.95	1299.53
887.12	1300.46
887.29	1303.07
887.46	1302.51
887.63	1302.88
887.80	1307.35
887.97	1303.81
888.14	1297.30
888.30	1304.74
888.47	1302.51
888.64	1304.56
888.81	1298.04
888.98	1295.62
889.15	1290.03
889.32	1292.27
889.49	1287.99
889.66	1279.61
889.83	1281.47
890.00	1282.59
890.16	1275.14
890.33	1275.88
890.50	1277.19
890.67	1275.70
890.84	1279.61
891.01	1267.69
891.18	1314.80
891.35	1282.03
891.52	1267.69
891.68	1306.60
